#Format: frequency (Hz)  ratio (dB)  phase (deg)
           1     -72.5167      22.9439
     1.00926     -73.0427      22.7148
     1.01861     -73.5602      22.5081
     1.02804     -74.0697      22.3217
     1.03757     -74.5716      22.1542
     1.04718     -75.0664      22.0039
     1.05688     -75.5545      21.8695
     1.06667     -76.0362      21.7499
     1.07654     -76.5118       21.644
     1.08652     -76.9816      21.5509
     1.09658      -77.446      21.4697
     1.10674     -77.9052      21.3996
     1.11699     -78.3595        21.34
     1.12733      -78.809      21.2902
     1.13777      -79.254      21.2497
     1.14831     -79.6946      21.2178
     1.15895     -80.1312      21.1942
     1.16968     -80.5638      21.1784
     1.18052     -80.9926      21.1701
     1.19145     -81.4178      21.1688
     1.20249     -81.8395      21.1742
     1.21362     -82.2578       21.186
     1.22486     -82.6729      21.2039
     1.23621      -83.085      21.2277
     1.24766      -83.494      21.2572
     1.25922     -83.9002      21.2921
     1.27088     -84.3035      21.3321
     1.28265     -84.7043      21.3772
     1.29453     -85.1024      21.4272
     1.30652      -85.498      21.4818
     1.31862     -85.8912       21.541
     1.33083     -86.2821      21.6045
     1.34316     -86.6707      21.6723
      1.3556     -87.0571      21.7443
     1.36816     -87.4413      21.8203
     1.38083     -87.8235      21.9003
     1.39362     -88.2038       21.984
     1.40653      -88.582      22.0716
     1.41955     -88.9584      22.1627
      1.4327     -89.3329      22.2575
     1.44597     -89.7057      22.3558
     1.45937     -90.0767      22.4576
     1.47288      -90.446      22.5627
     1.48652     -90.8136      22.6712
     1.50029     -91.1796      22.7829
     1.51419     -91.5441      22.8979
     1.52821      -91.907      23.0161
     1.54237     -92.2684      23.1374
     1.55665     -92.6284      23.2618
     1.57107     -92.9869      23.3893
     1.58562      -93.344      23.5198
     1.60031     -93.6997      23.6533
     1.61513     -94.0541      23.7898
     1.63009     -94.4072      23.9292
     1.64519     -94.7589      24.0716
     1.66043     -95.1094      24.2169
     1.67581     -95.4586       24.365
     1.69133     -95.8066       24.516
     1.70699     -96.1535      24.6699
     1.72281     -96.4991      24.8267
     1.73876     -96.8435      24.9862
     1.75487     -97.1868      25.1486
     1.77112     -97.5289      25.3138
     1.78753       -97.87      25.4818
     1.80408     -98.2099      25.6526
     1.82079     -98.5487      25.8262
     1.83766     -98.8865      26.0026
     1.85468     -99.2232      26.1817
     1.87186     -99.5588      26.3637
     1.88919     -99.8934      26.5484
     1.90669     -100.227       26.736
     1.92435     -100.559      26.9263
     1.94217     -100.891      27.1195
     1.96016     -101.221      27.3154
     1.97832     -101.551      27.5142
     1.99664     -101.879      27.7158
     2.01514     -102.207      27.9202
      2.0338     -102.533      28.1274
     2.05264     -102.859      28.3375
     2.07165     -103.184      28.5504
     2.09084     -103.507      28.7662
      2.1102      -103.83      28.9849
     2.12975     -104.151      29.2065
     2.14947     -104.472      29.4309
     2.16938     -104.792      29.6583
     2.18948      -105.11      29.8887
     2.20976     -105.428      30.1219
     2.23022     -105.745      30.3582
     2.25088     -106.061      30.5974
     2.27173     -106.375      30.8396
     2.29277     -106.689      31.0849
     2.31401     -107.002      31.3332
     2.33544     -107.314      31.5845
     2.35707     -107.624       31.839
      2.3789     -107.934      32.0965
     2.40093     -108.243      32.3572
     2.42317     -108.551       32.621
     2.44562     -108.857       32.888
     2.46827     -109.163      33.1581
     2.49113     -109.467      33.4315
      2.5142     -109.771      33.7081
     2.53749     -110.073       33.988
     2.56099     -110.375      34.2712
     2.58471     -110.675      34.5577
     2.60865     -110.974      34.8475
     2.63282     -111.272      35.1407
      2.6572     -111.568      35.4373
     2.68181     -111.864      35.7374
     2.70665     -112.158      36.0408
     2.73172     -112.451      36.3478
     2.75702     -112.743      36.6582
     2.78256     -113.034      36.9722
     2.80833     -113.323      37.2897
     2.83434     -113.611      37.6108
      2.8606     -113.897      37.9356
     2.88709     -114.183      38.2639
     2.91383     -114.466      38.5959
     2.94082     -114.749      38.9317
     2.96806      -115.03      39.2711
     2.99555     -115.309      39.6142
     3.02329     -115.587      39.9611
      3.0513     -115.863      40.3118
     3.07956     -116.138      40.6663
     3.10808     -116.411      41.0246
     3.13687     -116.682      41.3867
     3.16592     -116.951      41.7527
     3.19525     -117.219      42.1225
     3.22484     -117.484      42.4961
     3.25471     -117.748      42.8737
     3.28486      -118.01      43.2551
     3.31528      -118.27      43.6404
     3.34599     -118.527      44.0295
     3.37698     -118.783      44.4225
     3.40826     -119.036      44.8194
     3.43983     -119.287        45.22
     3.47169     -119.535      45.6244
     3.50384     -119.781      46.0325
      3.5363     -120.024      46.4444
     3.56905     -120.265      46.8598
     3.60211     -120.503      47.2788
     3.63547     -120.738      47.7013
     3.66914      -120.97      48.1272
     3.70313     -121.199      48.5564
     3.73743     -121.424      48.9887
     3.77204     -121.646       49.424
     3.80698     -121.865      49.8622
     3.84224      -122.08       50.303
     3.87783     -122.292      50.7463
     3.91375     -122.499      51.1918
        3.95     -122.702      51.6392
     3.98658     -122.901      52.0882
     4.02351     -123.095      52.5385
     4.06077     -123.285      52.9897
     4.09838     -123.469      53.4413
     4.13634     -123.649      53.8929
     4.17466     -123.823      54.3438
     4.21332     -123.991      54.7935
     4.25235     -124.153      55.2413
     4.29173     -124.309      55.6863
     4.33148     -124.458      56.1276
      4.3716       -124.6      56.5643
     4.41209     -124.735      56.9952
     4.45296     -124.862       57.419
      4.4942     -124.981      57.8344
     4.53583     -125.091      58.2394
     4.57784     -125.192      58.6319
     4.62024     -125.283      59.0106
     4.66303     -125.363      59.3728
     4.70622     -125.433      59.7148
     4.74981     -125.491      60.0345
     4.79381     -125.536      60.3273
     4.83821     -125.567      60.5891
     4.88302     -125.584      60.8149
     4.92825     -125.586      60.9994
      4.9739     -125.571       61.134
     5.01997     -125.538      61.2125
     5.06646     -125.486      61.2234
     5.11339     -125.414      61.1558
     5.16075     -125.319      60.9959
     5.20855     -125.199      60.7255
     5.25679     -125.054       60.325
     5.30548     -124.881      59.7681
     5.35462     -124.677      59.0227
     5.40422     -124.442      58.0492
     5.45427     -124.172      56.7984
     5.50479     -123.867       55.207
     5.55578     -123.527      53.1963
     5.60723     -123.154      50.6676
     5.65917     -122.755      47.5001
     5.71159     -122.341      43.5514
     5.76449     -121.935      38.6672
     5.81788     -121.572      32.7091
     5.87177     -121.306      25.6107
     5.92615     -121.202      17.4611
     5.98104     -121.323      8.57764
     6.03644     -121.706    -0.508501
     6.09235     -122.343      -9.1974
     6.14878     -123.188      -17.015
     6.20573     -124.172     -23.7198
     6.26321     -125.235     -29.2811
     6.32122     -126.328     -33.7958
     6.37977     -127.421     -37.4118
     6.43886     -128.494     -40.2815
      6.4985     -129.537      -42.541
     6.55869     -130.547     -44.3041
     6.61943      -131.52     -45.6627
     6.68074     -132.458     -46.6903
     6.74262     -133.363     -47.4452
     6.80507     -134.235     -47.9737
      6.8681     -135.076     -48.3128
     6.93172      -135.89     -48.4921
     6.99592     -136.678     -48.5358
     7.06072     -137.441     -48.4634
     7.12612     -138.181     -48.2909
     7.19212       -138.9     -48.0316
     7.25873       -139.6     -47.6966
     7.32597      -140.28     -47.2952
     7.39382     -140.944      -46.835
      7.4623     -141.591     -46.3229
     7.53142     -142.222     -45.7643
     7.60118     -142.839     -45.1643
     7.67158     -143.442     -44.5269
     7.74264     -144.031      -43.856
     7.81435     -144.608     -43.1546
     7.88673     -145.173     -42.4257
     7.95978     -145.726     -41.6717
      8.0335     -146.268     -40.8948
     8.10791       -146.8     -40.0971
     8.18301      -147.32     -39.2804
      8.2588     -147.831     -38.4463
     8.33529     -148.332     -37.5966
      8.4125     -148.823     -36.7324
     8.49042     -149.304     -35.8554
     8.56906     -149.777     -34.9666
     8.64842      -150.24     -34.0675
     8.72853     -150.694     -33.1591
     8.80937      -151.14     -32.2428
     8.89097     -151.576     -31.3196
     8.97332     -152.004     -30.3908
     9.05643     -152.423     -29.4575
     9.14031     -152.834     -28.5209
     9.22497     -153.236     -27.5821
     9.31041     -153.629     -26.6424
     9.39665     -154.014     -25.7027
     9.48368      -154.39     -24.7643
     9.57152     -154.757     -23.8281
     9.66017     -155.116     -22.8948
     9.74965     -155.467      -21.965
     9.83995     -155.809     -21.0391
     9.93109     -156.143     -20.1167
     10.0231     -156.468     -19.1968
     10.1159     -156.785     -18.2775
     10.2096     -157.093     -17.3553
     10.3042     -157.393     -16.4247
     10.3996     -157.685     -15.4776
     10.4959     -157.968     -14.5017
     10.5931     -158.242     -13.4795
     10.6913     -158.505     -12.3858
     10.7903     -158.756     -11.1848
     10.8902      -158.99     -9.82531
     10.9911     -159.201     -8.23489
     11.0929     -159.376     -6.31004
     11.1956     -159.495     -3.90295
     11.2993     -159.518    -0.802439
      11.404     -159.371      3.28825
     11.5096     -158.908      8.76356
     11.6162     -157.821      16.0535
     11.7238     -155.371       25.219
     11.8324     -149.046      33.1292
      11.942     -142.507     -101.439
     12.0526     -154.942     -103.607
     12.1642     -159.566     -93.7875
     12.2769      -162.19     -85.2292
     12.3906      -163.96     -78.4528
     12.5054     -165.312     -73.0888
     12.6212     -166.441     -68.7057
     12.7381     -167.444     -64.9614
     12.8561     -168.372      -61.605
     12.9752     -169.251     -58.4583
     13.0954     -170.093     -55.3948
     13.2166     -170.908     -52.3212
     13.3391     -171.697     -49.1693
     13.4626     -172.462     -45.8869
     13.5873     -173.201     -42.4326
     13.7131     -173.913     -38.7724
     13.8402     -174.594     -34.8764
     13.9684     -175.241     -30.7173
     14.0977     -175.849     -26.2687
     14.2283     -176.411     -21.5038
     14.3601     -176.921     -16.3951
     14.4931     -177.368     -10.9131
     14.6273      -177.74     -5.02701
     14.7628     -178.022      1.29586
     14.8996     -178.194      8.08873
     15.0376     -178.227      15.3834
     15.1768     -178.086      23.2066
     15.3174     -177.718      31.5718
     15.4593     -177.046      40.4635
     15.6025     -175.948      49.7979
      15.747     -174.206      59.3109
     15.8928     -171.367      68.1144
       16.04     -166.165       71.818
     16.1886     -156.784      13.8133
     16.3385     -166.716     -40.7021
     16.4899     -172.211     -32.7832
     16.6426     -175.159     -16.7577
     16.7967       -176.6      3.94452
     16.9523     -176.572      29.8753
     17.1093     -174.339      62.8489
     17.2678     -167.361      104.013
     17.4277     -140.441      108.167
     17.5892     -142.668     -68.6381
     17.7521     -159.917      158.081
     17.9165     -172.912     -159.837
     18.0824     -177.403     -122.672
     18.2499     -178.421     -94.0086
      18.419     -176.982     -73.1266
     18.5896     -172.016     -65.4948
     18.7617      -167.35     -147.934
     18.9355     -178.077     -171.001
     19.1109     -183.776     -162.857
     19.2879     -187.551     -151.788
     19.4666     -190.356      -140.46
     19.6469     -192.565     -129.458
     19.8288     -194.364     -118.954
     20.0125     -195.864     -108.999
     20.1979     -197.137     -99.5944
     20.3849     -198.233     -90.7204
     20.5737     -199.188     -82.3484
     20.7643      -200.03      -74.445
     20.9566      -200.78     -66.9742
     21.1507     -201.455     -59.9004
     21.3466     -202.066     -53.1898
     21.5443     -202.626     -46.8111
     21.7439     -203.142     -40.7345
     21.9453      -203.62      -34.933
     22.1486     -204.068     -29.3822
     22.3537     -204.488     -24.0598
     22.5607     -204.885     -18.9457
     22.7697     -205.261     -14.0216
     22.9806      -205.62      -9.2712
     23.1935     -205.964     -4.67944
     23.4083     -206.294     -0.23275
     23.6251     -206.612      4.08127
     23.8439      -206.92      8.27403
     24.0648     -207.218      12.3559
     24.2876     -207.507      16.3367
     24.5126     -207.789      20.2253
     24.7396     -208.064      24.0303
     24.9688     -208.332      27.7597
     25.2001     -208.595      31.4211
     25.4335     -208.852      35.0216
      25.669     -209.105      38.5685
     25.9068     -209.352      42.0686
     26.1467     -209.596      45.5287
     26.3889     -209.835      48.9556
     26.6333     -210.069      52.3561
       26.88       -210.3      55.7371
      27.129     -210.526      59.1058
     27.3803     -210.748      62.4696
     27.6339     -210.965      65.8363
     27.8898     -211.176      69.2144
     28.1481     -211.383      72.6121
     28.4088     -211.582      76.0395
      28.672     -211.775      79.5071
     28.9375     -211.958      83.0262
     29.2056     -212.132      86.6089
     29.4761     -212.293      90.2684
     29.7491      -212.44      94.0195
     30.0246     -212.568      97.8784
     30.3027     -212.673      101.861
     30.5834     -212.751      105.985
     30.8666     -212.792      110.266
     31.1525     -212.789      114.718
     31.4411      -212.73       119.35
     31.7323     -212.597       124.16
     32.0262     -212.373      129.128
     32.3228     -212.032      134.203
     32.6222     -211.543      139.286
     32.9244     -210.867        144.2
     33.2293     -209.959      148.637
     33.5371     -208.764      152.069
     33.8477      -207.23      153.568
     34.1612     -205.347      151.445
     34.4776     -203.315      142.842
      34.797     -201.962      125.464
     35.1193     -202.417      105.038
     35.4446     -204.201      91.3742
     35.7729     -206.175      85.1627
     36.1042      -207.91      83.3676
     36.4386      -209.36      83.8868
     36.7761     -210.569      85.6159
     37.1167     -211.588       87.984
     37.4605      -212.46      90.6843
     37.8075     -213.216      93.5485
     38.1576     -213.882      96.4809
     38.5111     -214.475      99.4271
     38.8678      -215.01      102.356
     39.2278     -215.497      105.252
     39.5911     -215.946      108.107
     39.9578     -216.362      110.916
     40.3279     -216.751       113.68
     40.7014     -217.116      116.401
     41.0784     -217.462      119.079
     41.4589     -217.791       121.72
     41.8429     -218.105      124.324
     42.2304     -218.405      126.897
     42.6216     -218.694       129.44
     43.0164     -218.972      131.957
     43.4148     -219.241      134.449
     43.8169       -219.5       136.92
     44.2227     -219.752      139.371
     44.6323     -219.995      141.804
     45.0457     -220.232      144.221
      45.463     -220.462      146.622
      45.884     -220.685      149.008
      46.309     -220.902       151.38
     46.7379     -221.113      153.739
     47.1708     -221.318      156.084
     47.6078     -221.519      158.415
     48.0487     -221.714      160.734
     48.4937     -221.904       163.04
     48.9429     -222.089      165.334
     49.3962     -222.271      167.616
     49.8537     -222.448      169.887
     50.3155     -222.622      172.148
     50.7815     -222.792        174.4
     51.2519     -222.958      176.643
     51.7266     -223.121      178.881
     52.2057     -223.281     -178.887
     52.6892     -223.438     -176.658
     53.1772     -223.591     -174.432
     53.6698     -223.742     -172.207
     54.1669     -223.889     -169.982
     54.6686     -224.032     -167.757
     55.1749     -224.172     -165.531
      55.686     -224.308     -163.304
     56.2017      -224.44     -161.075
     56.7223     -224.568     -158.845
     57.2477     -224.692     -156.614
     57.7779     -224.811     -154.382
      58.313     -224.926      -152.15
     58.8532     -225.037     -149.919
     59.3983     -225.143     -147.689
     59.9484     -225.244     -145.461
     60.5037      -225.34     -143.237
     61.0641     -225.432     -141.017
     61.6297     -225.518     -138.802
     62.2005     -225.599     -136.594
     62.7766     -225.676     -134.394
     63.3581     -225.748     -132.202
     63.9449     -225.814      -130.02
     64.5372     -225.876      -127.85
     65.1349     -225.933     -125.691
     65.7382     -225.985     -123.546
     66.3471     -226.033     -121.415
     66.9616     -226.076     -119.299
     67.5818     -226.114     -117.199
     68.2078     -226.148     -115.116
     68.8395     -226.178     -113.051
     69.4771     -226.204     -111.004
     70.1206     -226.225     -108.977
     70.7701     -226.243      -106.97
     71.4256     -226.257     -104.983
     72.0872     -226.267     -103.016
     72.7548     -226.273     -101.072
     73.4287     -226.277     -99.1492
     74.1088     -226.277     -97.2481
     74.7952     -226.274       -95.37
      75.488     -226.268     -93.5142
     76.1872     -226.259     -91.6813
     76.8928     -226.247     -89.8719
      77.605     -226.233     -88.0848
     78.3238     -226.217     -86.3207
     79.0493     -226.198       -84.58
     79.7814     -226.177     -82.8617
     80.5204     -226.154     -81.1669
     81.2662      -226.13     -79.4945
     82.0189     -226.103     -77.8449
     82.7786     -226.075     -76.2171
     83.5453     -226.045     -74.6123
     84.3191     -226.013     -73.0292
     85.1001     -225.981     -71.4673
     85.8883     -225.947     -69.9278
     86.6838     -225.911     -68.4089
     87.4867     -225.875     -66.9112
      88.297     -225.837     -65.4335
     89.1148     -225.799     -63.9765
     89.9402      -225.76     -62.5395
     90.7733     -225.719     -61.1226
      91.614     -225.678      -59.724
     92.4626     -225.637     -58.3449
      93.319     -225.595     -56.9847
     94.1833     -225.552     -55.6426
     95.0557     -225.508     -54.3184
     95.9361     -225.465     -53.0119
     96.8247      -225.42     -51.7226
     97.7215     -225.376     -50.4503
     98.6266     -225.331     -49.1946
     99.5401     -225.286     -47.9552
     100.462      -225.24     -46.7318
     101.393     -225.194      -45.524
     102.332     -225.148     -44.3315
     103.279     -225.102      -43.154
     104.236     -225.056     -41.9912
     105.202      -225.01     -40.8427
     106.176     -224.964     -39.7083
     107.159     -224.917     -38.5877
     108.152     -224.871     -37.4806
     109.154     -224.824     -36.3867
     110.165     -224.778     -35.3057
