#Format: frequency (Hz)  ratio (dB)  phase (deg)
           1      -83.765      -145.14
      1.0093      -84.288       -144.8
      1.0186      -84.803      -144.45
       1.028      -85.308      -144.09
      1.0376      -85.805      -143.72
      1.0472      -86.295      -143.35
      1.0569      -86.777      -142.96
      1.0667      -87.251      -142.57
      1.0765      -87.719      -142.17
      1.0865      -88.181      -141.76
      1.0966      -88.637      -141.35
      1.1067      -89.087      -140.92
       1.117      -89.531      -140.49
      1.1273      -89.969      -140.05
      1.1378      -90.403       -139.6
      1.1483      -90.831      -139.14
      1.1589      -91.255      -138.67
      1.1697      -91.674      -138.19
      1.1805      -92.089       -137.7
      1.1914      -92.499       -137.2
      1.2025      -92.905      -136.69
      1.2136      -93.307      -136.17
      1.2249      -93.705      -135.64
      1.2362      -94.098      -135.09
      1.2477      -94.488      -134.54
      1.2592      -94.874      -133.97
      1.2709      -95.256      -133.39
      1.2827      -95.634       -132.8
      1.2945      -96.008      -132.19
      1.3065      -96.378      -131.57
      1.3186      -96.745      -130.94
      1.3308      -97.107      -130.29
      1.3432      -97.466      -129.63
      1.3556      -97.821      -128.95
      1.3682      -98.172      -128.25
      1.3808      -98.519      -127.53
      1.3936      -98.862       -126.8
      1.4065      -99.201      -126.05
      1.4196      -99.535      -125.28
      1.4327      -99.865      -124.49
       1.446      -100.19      -123.67
      1.4594      -100.51      -122.84
      1.4729      -100.83      -121.98
      1.4865      -101.14       -121.1
      1.5003      -101.44      -120.19
      1.5142      -101.74      -119.26
      1.5282      -102.03       -118.3
      1.5424      -102.32      -117.31
      1.5567       -102.6      -116.29
      1.5711      -102.87      -115.24
      1.5856      -103.13      -114.16
      1.6003      -103.38      -113.05
      1.6151      -103.63       -111.9
      1.6301      -103.86      -110.72
      1.6452      -104.09       -109.5
      1.6604       -104.3      -108.24
      1.6758       -104.5      -106.94
      1.6913      -104.68      -105.61
       1.707      -104.85      -104.23
      1.7228         -105      -102.82
      1.7388      -105.13      -101.37
      1.7549      -105.23     -99.8751
      1.7711      -105.32     -98.3482
      1.7875      -105.37     -96.7892
      1.8041       -105.4     -95.2021
      1.8208      -105.39     -93.5938
      1.8377      -105.34     -91.9729
      1.8547      -105.24     -90.3537
      1.8719       -105.1     -88.7529
      1.8892      -104.89     -87.1962
      1.9067      -104.62     -85.7151
      1.9244      -104.26       -84.36
      1.9422      -103.82     -83.1992
      1.9602      -103.26      -82.334
      1.9783      -102.56     -81.9192
      1.9966      -101.71     -82.2028
      2.0151      -100.66     -83.5951
      2.0338      -99.378     -86.8083
      2.0526      -97.872     -93.1223
      2.0716      -96.292      -104.63
      2.0908       -95.22      -123.24
      2.1102      -95.584      -145.76
      2.1298      -97.347         -164
      2.1495      -99.573      -175.16
      2.1694      -101.71       178.76
      2.1895      -103.62        175.7
      2.2098       -105.3       174.43
      2.2302      -106.79       174.25
      2.2509      -108.12       174.77
      2.2717      -109.31       175.73
      2.2928      -110.39          177
       2.314      -111.38       178.46
      2.3354      -112.29      -179.94
      2.3571      -113.14      -178.26
      2.3789      -113.92      -176.52
      2.4009      -114.65      -174.76
      2.4232      -115.34      -172.99
      2.4456      -115.99      -171.22
      2.4683      -116.61      -169.46
      2.4911      -117.19      -167.72
      2.5142      -117.74         -166
      2.5375      -118.28      -164.31
       2.561      -118.79      -162.64
      2.5847      -119.28         -161
      2.6086      -119.75      -159.39
      2.6328       -120.2      -157.81
      2.6572      -120.65      -156.26
      2.6818      -121.07      -154.74
      2.7066      -121.49      -153.24
      2.7317      -121.89      -151.77
       2.757      -122.29      -150.32
      2.7826      -122.67      -148.89
      2.8083      -123.05      -147.49
      2.8343      -123.41      -146.11
      2.8606      -123.77      -144.75
      2.8871      -124.13       -143.4
      2.9138      -124.47      -142.08
      2.9408      -124.81      -140.76
      2.9681      -125.14      -139.47
      2.9956      -125.47      -138.18
      3.0233      -125.79      -136.91
      3.0513      -126.11      -135.65
      3.0796      -126.42       -134.4
      3.1081      -126.73      -133.16
      3.1369      -127.03      -131.93
      3.1659      -127.33       -130.7
      3.1953      -127.62      -129.49
      3.2248      -127.91      -128.27
      3.2547      -128.19      -127.07
      3.2849      -128.47      -125.86
      3.3153      -128.74      -124.67
       3.346      -129.02      -123.47
       3.377      -129.28      -122.28
      3.4083      -129.54      -121.09
      3.4398       -129.8       -119.9
      3.4717      -130.06      -118.71
      3.5038      -130.31      -117.52
      3.5363      -130.55      -116.33
       3.569      -130.79      -115.14
      3.6021      -131.03      -113.95
      3.6355      -131.26      -112.76
      3.6691      -131.49      -111.57
      3.7031      -131.71      -110.37
      3.7374      -131.93      -109.18
       3.772      -132.14      -107.98
       3.807      -132.35      -106.78
      3.8422      -132.55      -105.57
      3.8778      -132.75      -104.37
      3.9137      -132.94      -103.16
        3.95      -133.12      -101.94
      3.9866       -133.3      -100.73
      4.0235      -133.48     -99.5119
      4.0608      -133.64     -98.2921
      4.0984       -133.8     -97.0699
      4.1363      -133.96      -95.845
      4.1747       -134.1     -94.6182
      4.2133      -134.24      -93.391
      4.2523      -134.37      -92.162
      4.2917       -134.5     -90.9341
      4.3315      -134.61     -89.7063
      4.3716      -134.72     -88.4802
      4.4121      -134.81     -87.2557
       4.453       -134.9     -86.0359
      4.4942      -134.98     -84.8201
      4.5358      -135.04     -83.6117
      4.5778       -135.1     -82.4108
      4.6202      -135.14     -81.2208
       4.663      -135.17     -80.0439
      4.7062      -135.18     -78.8831
      4.7498      -135.18     -77.7401
      4.7938      -135.17     -76.6199
      4.8382      -135.14     -75.5267
       4.883       -135.1     -74.4662
      4.9283      -135.03     -73.4417
      4.9739      -134.95     -72.4631
        5.02      -134.85     -71.5378
      5.0665      -134.72     -70.6761
      5.1134      -134.57     -69.8882
      5.1608       -134.4     -69.1892
      5.2085       -134.2     -68.5962
      5.2568      -133.97     -68.1298
      5.3055       -133.7     -67.8182
      5.3546      -133.41     -67.6898
      5.4042      -133.08     -67.7861
      5.4543      -132.71     -68.1579
      5.5048       -132.3     -68.8672
      5.5558      -131.86      -69.992
      5.6072      -131.38     -71.6329
      5.6592      -130.86      -73.911
      5.7116      -130.33     -76.9683
      5.7645      -129.81     -80.9578
      5.8179      -129.32      -86.021
      5.8718      -128.92     -92.2227
      5.9261      -128.69     -99.4752
       5.981      -128.67      -107.46
      6.0364      -128.91      -115.65
      6.0923       -129.4      -123.44
      6.1488      -130.09      -130.36
      6.2057      -130.92      -136.17
      6.2632      -131.82      -140.83
      6.3212      -132.75      -144.45
      6.3798      -133.67      -147.18
      6.4389      -134.57      -149.16
      6.4985      -135.43      -150.53
      6.5587      -136.25      -151.42
      6.6194      -137.03       -151.9
      6.6807      -137.76      -152.05
      6.7426      -138.46      -151.94
      6.8051      -139.12      -151.61
      6.8681      -139.74       -151.1
      6.9317      -140.33      -150.43
      6.9959      -140.88      -149.64
      7.0607       -141.4      -148.74
      7.1261      -141.89      -147.76
      7.1921      -142.35      -146.69
      7.2587      -142.78      -145.57
       7.326      -143.19      -144.39
      7.3938      -143.57      -143.18
      7.4623      -143.92      -141.93
      7.5314      -144.24      -140.65
      7.6012      -144.55      -139.35
      7.6716      -144.82      -138.04
      7.7426      -145.07      -136.72
      7.8144       -145.3       -135.4
      7.8867       -145.5      -134.08
      7.9598      -145.68      -132.78
      8.0335      -145.83      -131.49
      8.1079      -145.96      -130.23
       8.183      -146.06         -129
      8.2588      -146.13      -127.81
      8.3353      -146.17      -126.66
      8.4125      -146.18      -125.58
      8.4904      -146.17      -124.57
      8.5691      -146.12      -123.64
      8.6484      -146.03      -122.82
      8.7285      -145.92      -122.11
      8.8094      -145.76      -121.56
       8.891      -145.57      -121.18
      8.9733      -145.33      -121.01
      9.0564      -145.06       -121.1
      9.1403      -144.74       -121.5
       9.225      -144.37      -122.29
      9.3104      -143.96      -123.56
      9.3966      -143.51      -125.41
      9.4837      -143.03      -127.99
      9.5715      -142.54      -131.43
      9.6602      -142.07       -135.9
      9.7497      -141.65      -141.48
      9.8399      -141.37      -148.16
      9.9311      -141.27      -155.73
      10.023      -141.41      -163.71
      10.116       -141.8      -171.51
       10.21      -142.41      -178.57
      10.304      -143.17       175.46
        10.4      -144.01        170.7
      10.496      -144.88       167.11
      10.593      -145.74       164.58
      10.691      -146.56       162.98
       10.79      -147.31       162.21
       10.89      -147.98       162.19
      10.991      -148.55       162.87
      11.093      -148.99       164.23
      11.196      -149.27       166.28
      11.299      -149.32       169.03
      11.404      -149.04       172.45
       11.51      -148.25        176.3
      11.616      -146.62       179.73
      11.724      -143.43       179.46
      11.832      -137.35       155.55
      11.942      -139.64      81.4351
      12.053      -146.26      67.2538
      12.164      -150.21       68.296
      12.277      -152.84      71.8231
      12.391      -154.75      75.4689
      12.505      -156.22      78.6327
      12.621      -157.44      81.1938
      12.738      -158.48        83.19
      12.856      -159.42      84.7038
      12.975      -160.29      85.8251
      13.095      -161.11      86.6398
      13.217       -161.9      87.2219
      13.339      -162.68      87.6368
      13.463      -163.45      87.9393
      13.587      -164.21      88.1748
      13.713      -164.97      88.3839
       13.84      -165.72      88.5988
      13.968      -166.48      88.8463
      14.098      -167.23      89.1482
      14.228      -167.97      89.5218
       14.36      -168.72      89.9847
      14.493      -169.46      90.5491
      14.627      -170.19       91.224
      14.763      -170.91      92.0227
        14.9      -171.63      92.9538
      15.038      -172.33      94.0292
      15.177      -173.02      95.2588
      15.317      -173.69      96.6608
      15.459      -174.34      98.2531
      15.602      -174.96       100.06
      15.747      -175.56        102.1
      15.893      -176.11       104.42
       16.04      -176.62       107.06
      16.189      -177.05       110.08
      16.338      -177.39       113.54
       16.49       -177.6       117.52
      16.643      -177.61       122.07
      16.797      -177.31       127.19
      16.952      -176.53        132.7
      17.109      -174.93       137.77
      17.268      -171.77       139.11
      17.428      -165.75       116.71
      17.589      -168.16       44.328
      17.752      -174.84       31.999
      17.916      -178.88       34.853
      18.082      -181.59       40.231
       18.25      -183.58        45.78
      18.419      -185.14       50.895
       18.59      -186.43       55.447
      18.762      -187.55      59.4639
      18.936      -188.55      63.0219
      19.111      -189.47      66.1978
      19.288      -190.34      69.0632
      19.467      -191.17       71.681
      19.647      -191.98      74.1012
      19.829      -192.77      76.3678
      20.012      -193.54      78.5199
      20.198       -194.3      80.5871
      20.385      -195.06      82.5919
      20.574      -195.82      84.5611
      20.764      -196.57      86.5132
      20.957      -197.32       88.463
      21.151      -198.06      90.4271
      21.347      -198.81      92.4158
      21.544      -199.55      94.4429
      21.744       -200.3       96.517
      21.945      -201.04      98.6461
      22.149      -201.78       100.84
      22.354      -202.51        103.1
      22.561      -203.25       105.43
       22.77      -203.97       107.84
      22.981       -204.7       110.32
      23.194      -205.41        112.9
      23.408      -206.12       115.55
      23.625      -206.82       118.29
      23.844      -207.51       121.12
      24.065       -208.2       124.03
      24.288      -208.87       127.03
      24.513      -209.53        130.1
       24.74      -210.18       133.26
      24.969      -210.81       136.49
        25.2      -211.43       139.79
      25.433      -212.04       143.17
      25.669      -212.63        146.6
      25.907       -213.2       150.09
      26.147      -213.76       153.63
      26.389       -214.3       157.22
      26.633      -214.82       160.84
       26.88      -215.32        164.5
      27.129      -215.81       168.18
       27.38      -216.28       171.87
      27.634      -216.73       175.57
       27.89      -217.16       179.28
      28.148      -217.58      -177.02
      28.409      -217.98      -173.33
      28.672      -218.36      -169.66
      28.938      -218.72      -166.01
      29.206      -219.07      -162.39
      29.476      -219.41       -158.8
      29.749      -219.73      -155.24
      30.025      -220.04      -151.73
      30.303      -220.34      -148.25
      30.583      -220.62      -144.82
      30.867       -220.9      -141.43
      31.152      -221.16      -138.09
      31.441      -221.41       -134.8
      31.732      -221.66      -131.56
      32.026       -221.9      -128.36
      32.323      -222.12      -125.21
      32.622      -222.34      -122.11
      32.924      -222.56      -119.05
      33.229      -222.77      -116.04
      33.537      -222.97      -113.07
      33.848      -223.17      -110.15
      34.161      -223.36      -107.27
      34.478      -223.54      -104.44
      34.797      -223.73      -101.64
      35.119      -223.91     -98.8811
      35.445      -224.08     -96.1612
      35.773      -224.25     -93.4781
      36.104      -224.42      -90.831
      36.439      -224.58     -88.2189
      36.776      -224.74     -85.6389
      37.117       -224.9     -83.0932
      37.461      -225.05     -80.5768
      37.807      -225.21     -78.0919
      38.158      -225.36     -75.6367
      38.511       -225.5     -73.2103
      38.868      -225.65     -70.8113
      39.228      -225.79     -68.4381
      39.591      -225.93     -66.0918
      39.958      -226.07     -63.7708
      40.328       -226.2     -61.4749
      40.701      -226.34     -59.2032
      41.078      -226.47      -56.954
      41.459       -226.6      -54.728
      41.843      -226.73      -52.525
       42.23      -226.85      -50.343
      42.622      -226.97      -48.182
      43.016       -227.1      -46.042
      43.415      -227.22      -43.923
      43.817      -227.34      -41.824
      44.223      -227.45      -39.745
      44.632      -227.57      -37.684
      45.046      -227.68      -35.643
      45.463      -227.79       -33.62
      45.884       -227.9      -31.616
      46.309      -228.01      -29.629
      46.738      -228.12      -27.661
      47.171      -228.23       -25.71
      47.608      -228.33      -23.776
      48.049      -228.43       -21.86
      48.494      -228.53       -19.96
      48.943      -228.63      -18.077
      49.396      -228.73      -16.211
      49.854      -228.83      -14.361
      50.316      -228.93      -12.527
      50.782      -229.02      -10.709
      51.252      -229.12     -8.90651
      51.727      -229.21      -7.1198
      52.206       -229.3      -5.3486
      52.689      -229.39      -3.5927
      53.177      -229.48      -1.8519
       53.67      -229.57     -0.12571
      54.167      -229.66       1.5855
      54.669      -229.74       3.2821
      55.175      -229.83       4.9641
      55.686      -229.91      6.63227
      56.202         -230        8.286
      56.722      -230.08      9.92621
      57.248      -230.16       11.553
      57.778      -230.24       13.165
      58.313      -230.33       14.765
      58.853      -230.41       16.352
      59.398      -230.49       17.926
      59.948      -230.57       19.487
      60.504      -230.64       21.037
      61.064      -230.72       22.574
       61.63       -230.8         24.1
        62.2      -230.88       25.614
      62.777      -230.96       27.117
      63.358      -231.03        28.61
      63.945      -231.11       30.092
      64.537      -231.19       31.565
      65.135      -231.26       33.028
      65.738      -231.34       34.482
      66.347      -231.41       35.928
      66.962      -231.49       37.365
      67.582      -231.57       38.795
      68.208      -231.64       40.217
       68.84      -231.72       41.633
      69.477      -231.79       43.043
      70.121      -231.87       44.447
       70.77      -231.94       45.846
      71.426      -232.02        47.24
      72.087       -232.1        48.63
      72.755      -232.17       50.015
      73.429      -232.25       51.398
      74.109      -232.32       52.777
      74.795      -232.39       54.154
      75.488      -232.47       55.528
      76.187      -232.54         56.9
      76.893      -232.61      58.2698
      77.605      -232.69      59.6392
      78.324      -232.76      61.0051
      79.049      -232.83       62.371
      79.781       -232.9      63.7341
       80.52      -232.97       65.096
      81.266      -233.04      66.4568
      82.019      -233.11      67.8153
      82.779      -233.18      69.1721
      83.545      -233.24      70.5271
      84.319      -233.31      71.8798
        85.1      -233.37      73.2309
      85.888      -233.44      74.5791
      86.684       -233.5      75.9238
      87.487      -233.56      77.2668
      88.297      -233.62      78.6069
      89.115      -233.68      79.9431
       89.94      -233.74      81.2758
      90.773       -233.8       82.605
      91.614      -233.86      83.9309
      92.463      -233.91      85.2533
      93.319      -233.97      86.5711
      94.183      -234.02      87.8843
      95.056      -234.08      89.1941
      95.936      -234.13      90.4998
      96.825      -234.18       91.801
      97.722      -234.23      93.0988
      98.627      -234.28      94.3919
       99.54      -234.33      95.6811
      100.46      -234.38      96.9662
      101.39      -234.43      98.2479
      102.33      -234.48      99.5262
      103.28      -234.52        100.8
      104.24      -234.57       102.07
       105.2      -234.62       103.34
      106.18      -234.66        104.6
      107.16      -234.71       105.86
      108.15      -234.75       107.12
      109.15      -234.79       108.37
      110.17      -234.84       109.62
